 Be Density=1.848 Thickness=200. microns
 Photon Energy (eV), Transmission
    500.00      0.00000    
    559.00      0.00000    
    618.00      0.28626E-39
    677.00      0.67260E-30
    736.00      0.15842E-23
    795.00      0.11170E-18
    854.00      0.45749E-15
    913.00      0.25083E-12
    972.00      0.34060E-10
    1031.0      0.16511E-08
    1090.0      0.36276E-07
    1149.0      0.43752E-06
    1208.0      0.33286E-05
    1267.0      0.17691E-04
    1326.0      0.70852E-04
    1385.0      0.22661E-03
    1444.0      0.60475E-03
    1503.0      0.13925E-02
    1562.0      0.28728E-02
    1621.0      0.53656E-02
    1680.0      0.91996E-02
    1739.0      0.14686E-01
    1798.0      0.22077E-01
    1857.0      0.31546E-01
    1916.0      0.43177E-01
    1975.0      0.56961E-01
    2034.0      0.72864E-01
    2093.0      0.91024E-01
    2152.0      0.11097    
    2211.0      0.13247    
    2270.0      0.15524    
    2329.0      0.17904    
    2388.0      0.20358    
    2447.0      0.22864    
    2506.0      0.25398    
    2565.0      0.27941    
    2624.0      0.30475    
    2683.0      0.32985    
    2742.0      0.35458    
    2801.0      0.37884    
    2860.0      0.40255    
    2919.0      0.42563    
    2978.0      0.44803    
    3037.0      0.46982    
    3096.0      0.49118    
    3155.0      0.51177    
    3214.0      0.53158    
    3273.0      0.55062    
    3332.0      0.56888    
    3391.0      0.58639    
    3450.0      0.60316    
    3509.0      0.61920    
    3568.0      0.63454    
    3627.0      0.64920    
    3686.0      0.66320    
    3745.0      0.67658    
    3804.0      0.68934    
    3863.0      0.70153    
    3922.0      0.71316    
    3981.0      0.72425    
    4040.0      0.73484    
    4099.0      0.74495    
    4158.0      0.75470    
    4217.0      0.76400    
    4276.0      0.77288    
    4335.0      0.78135    
    4394.0      0.78944    
    4453.0      0.79716    
    4512.0      0.80452    
    4571.0      0.81156    
    4630.0      0.81828    
    4689.0      0.82470    
    4748.0      0.83084    
    4807.0      0.83670    
    4866.0      0.84231    
    4925.0      0.84767    
    4984.0      0.85280    
    5043.0      0.85771    
    5102.0      0.86241    
    5161.0      0.86692    
    5220.0      0.87123    
    5279.0      0.87539    
    5338.0      0.87939    
    5397.0      0.88321    
    5456.0      0.88688    
    5515.0      0.89040    
    5574.0      0.89377    
    5633.0      0.89701    
    5692.0      0.90012    
    5751.0      0.90310    
    5810.0      0.90597    
    5869.0      0.90872    
    5928.0      0.91137    
    5987.0      0.91391    
    6046.0      0.91636    
    6105.0      0.91871    
    6164.0      0.92098    
    6223.0      0.92316    
    6282.0      0.92525    
    6341.0      0.92728    
    6400.0      0.92924    
    6459.0      0.93112    
    6518.0      0.93294    
    6577.0      0.93470    
    6636.0      0.93639    
    6695.0      0.93802    
    6754.0      0.93959    
    6813.0      0.94110    
    6872.0      0.94257    
    6931.0      0.94398    
    6990.0      0.94534    
    7049.0      0.94666    
    7108.0      0.94793    
    7167.0      0.94916    
    7226.0      0.95035    
    7285.0      0.95150    
    7344.0      0.95261    
    7403.0      0.95369    
    7462.0      0.95473    
    7521.0      0.95573    
    7580.0      0.95671    
    7639.0      0.95765    
    7698.0      0.95856    
    7757.0      0.95945    
    7816.0      0.96030    
    7875.0      0.96113    
    7934.0      0.96194    
    7993.0      0.96271    
    8052.0      0.96347    
    8111.0      0.96420    
    8170.0      0.96492    
    8229.0      0.96561    
    8288.0      0.96628    
    8347.0      0.96693    
    8406.0      0.96756    
    8465.0      0.96818    
    8524.0      0.96878    
    8583.0      0.96936    
    8642.0      0.96992    
    8701.0      0.97047    
    8760.0      0.97101    
    8819.0      0.97152    
    8878.0      0.97203    
    8937.0      0.97252    
    8996.0      0.97299    
    9055.0      0.97345    
    9114.0      0.97390    
    9173.0      0.97434    
    9232.0      0.97476    
    9291.0      0.97518    
    9350.0      0.97558    
    9409.0      0.97597    
    9468.0      0.97635    
    9527.0      0.97672    
    9586.0      0.97709    
    9645.0      0.97744    
    9704.0      0.97778    
    9763.0      0.97811    
    9822.0      0.97844    
    9881.0      0.97876    
    9940.0      0.97906    
    9999.0      0.97937    
    10058.      0.97966    
    10117.      0.97995    
    10176.      0.98023    
    10235.      0.98050    
    10294.      0.98077    
    10353.      0.98103    
    10412.      0.98129    
    10471.      0.98153    
    10530.      0.98178    
    10589.      0.98201    
    10648.      0.98224    
    10707.      0.98247    
    10766.      0.98269    
    10825.      0.98290    
    10884.      0.98311    
    10943.      0.98332    
    11002.      0.98352    
    11061.      0.98371    
    11120.      0.98390    
    11179.      0.98409    
    11238.      0.98427    
    11297.      0.98445    
    11356.      0.98462    
    11415.      0.98479    
    11474.      0.98496    
    11533.      0.98512    
    11592.      0.98528    
    11651.      0.98544    
    11710.      0.98559    
    11769.      0.98574    
    11828.      0.98588    
    11887.      0.98603    
    11946.      0.98617    
    12005.      0.98630    
    12064.      0.98644    
    12123.      0.98657    
    12182.      0.98669    
    12241.      0.98682    
    12300.      0.98694    
    12359.      0.98706    
    12418.      0.98718    
    12477.      0.98729    
    12536.      0.98741    
    12595.      0.98752    
    12654.      0.98763    
    12713.      0.98773    
    12772.      0.98784    
    12831.      0.98794    
    12890.      0.98804    
    12949.      0.98814    
    13008.      0.98823    
    13067.      0.98833    
    13126.      0.98842    
    13185.      0.98851    
    13244.      0.98860    
    13303.      0.98868    
    13362.      0.98877    
    13421.      0.98885    
    13480.      0.98893    
    13539.      0.98901    
    13598.      0.98909    
    13657.      0.98917    
    13716.      0.98924    
    13775.      0.98932    
    13834.      0.98939    
    13893.      0.98946    
    13952.      0.98953    
    14011.      0.98960    
    14070.      0.98967    
    14129.      0.98973    
    14188.      0.98980    
    14247.      0.98986    
    14306.      0.98992    
    14365.      0.98998    
    14424.      0.99004    
    14483.      0.99010    
    14542.      0.99016    
    14601.      0.99021    
    14660.      0.99027    
    14719.      0.99032    
    14778.      0.99038    
    14837.      0.99043    
    14896.      0.99048    
    14955.      0.99053    
    15014.      0.99058    
    15073.      0.99063    
    15132.      0.99068    
    15191.      0.99073    
    15250.      0.99078    
    15309.      0.99083    
    15368.      0.99087    
    15427.      0.99092    
    15486.      0.99097    
    15545.      0.99101    
    15604.      0.99105    
    15663.      0.99110    
    15722.      0.99114    
    15781.      0.99118    
    15840.      0.99122    
    15899.      0.99126    
    15958.      0.99130    
    16017.      0.99134    
    16076.      0.99138    
    16135.      0.99141    
    16194.      0.99145    
    16253.      0.99149    
    16312.      0.99152    
    16371.      0.99156    
    16430.      0.99159    
    16489.      0.99163    
    16548.      0.99166    
    16607.      0.99169    
    16666.      0.99173    
    16725.      0.99176    
    16784.      0.99179    
    16843.      0.99182    
    16902.      0.99185    
    16961.      0.99188    
    17020.      0.99191    
    17079.      0.99194    
    17138.      0.99197    
    17197.      0.99200    
    17256.      0.99202    
    17315.      0.99205    
    17374.      0.99208    
    17433.      0.99210    
    17492.      0.99213    
    17551.      0.99215    
    17610.      0.99218    
    17669.      0.99220    
    17728.      0.99223    
    17787.      0.99225    
    17846.      0.99228    
    17905.      0.99230    
    17964.      0.99232    
    18023.      0.99234    
    18082.      0.99237    
    18141.      0.99239    
    18200.      0.99241    
    18259.      0.99243    
    18318.      0.99245    
    18377.      0.99247    
    18436.      0.99249    
    18495.      0.99251    
    18554.      0.99253    
    18613.      0.99255    
    18672.      0.99257    
    18731.      0.99259    
    18790.      0.99261    
    18849.      0.99263    
    18908.      0.99264    
    18967.      0.99266    
    19026.      0.99268    
    19085.      0.99270    
    19144.      0.99271    
    19203.      0.99273    
    19262.      0.99274    
    19321.      0.99276    
    19380.      0.99278    
    19439.      0.99279    
    19498.      0.99281    
    19557.      0.99282    
    19616.      0.99284    
    19675.      0.99285    
    19734.      0.99287    
    19793.      0.99288    
    19852.      0.99290    
    19911.      0.99291    
    19970.      0.99292    
    20029.      0.99294    
    20088.      0.99295    
    20147.      0.99297    
    20206.      0.99298    
    20265.      0.99300    
    20324.      0.99301    
    20383.      0.99302    
    20442.      0.99304    
    20501.      0.99305    
    20560.      0.99306    
    20619.      0.99308    
    20678.      0.99309    
    20737.      0.99310    
    20796.      0.99312    
    20855.      0.99313    
    20914.      0.99314    
    20973.      0.99315    
    21032.      0.99317    
    21091.      0.99318    
    21150.      0.99319    
    21209.      0.99320    
    21268.      0.99321    
    21327.      0.99323    
    21386.      0.99324    
    21445.      0.99325    
    21504.      0.99326    
    21563.      0.99327    
    21622.      0.99328    
    21681.      0.99329    
    21740.      0.99330    
    21799.      0.99331    
    21858.      0.99332    
    21917.      0.99333    
    21976.      0.99334    
    22035.      0.99335    
    22094.      0.99336    
    22153.      0.99337    
    22212.      0.99338    
    22271.      0.99339    
    22330.      0.99340    
    22389.      0.99341    
    22448.      0.99342    
    22507.      0.99343    
    22566.      0.99343    
    22625.      0.99344    
    22684.      0.99345    
    22743.      0.99346    
    22802.      0.99347    
    22861.      0.99348    
    22920.      0.99349    
    22979.      0.99349    
    23038.      0.99350    
    23097.      0.99351    
    23156.      0.99352    
    23215.      0.99352    
    23274.      0.99353    
    23333.      0.99354    
    23392.      0.99355    
    23451.      0.99355    
    23510.      0.99356    
    23569.      0.99357    
    23628.      0.99358    
    23687.      0.99358    
    23746.      0.99359    
    23805.      0.99360    
    23864.      0.99360    
    23923.      0.99361    
    23982.      0.99362    
    24041.      0.99362    
    24100.      0.99363    
    24159.      0.99364    
    24218.      0.99364    
    24277.      0.99365    
    24336.      0.99366    
    24395.      0.99366    
    24454.      0.99367    
    24513.      0.99367    
    24572.      0.99368    
    24631.      0.99369    
    24690.      0.99369    
    24749.      0.99370    
    24808.      0.99370    
    24867.      0.99371    
    24926.      0.99371    
    24985.      0.99372    
    25044.      0.99372    
    25103.      0.99373    
    25162.      0.99374    
    25221.      0.99374    
    25280.      0.99375    
    25339.      0.99375    
    25398.      0.99376    
    25457.      0.99376    
    25516.      0.99377    
    25575.      0.99377    
    25634.      0.99378    
    25693.      0.99378    
    25752.      0.99379    
    25811.      0.99379    
    25870.      0.99379    
    25929.      0.99380    
    25988.      0.99380    
    26047.      0.99381    
    26106.      0.99381    
    26165.      0.99382    
    26224.      0.99382    
    26283.      0.99383    
    26342.      0.99383    
    26401.      0.99383    
    26460.      0.99384    
    26519.      0.99384    
    26578.      0.99385    
    26637.      0.99385    
    26696.      0.99385    
    26755.      0.99386    
    26814.      0.99386    
    26873.      0.99387    
    26932.      0.99387    
    26991.      0.99387    
    27050.      0.99388    
    27109.      0.99388    
    27168.      0.99388    
    27227.      0.99389    
    27286.      0.99389    
    27345.      0.99390    
    27404.      0.99390    
    27463.      0.99390    
    27522.      0.99391    
    27581.      0.99391    
    27640.      0.99391    
    27699.      0.99392    
    27758.      0.99392    
    27817.      0.99392    
    27876.      0.99393    
    27935.      0.99393    
    27994.      0.99393    
    28053.      0.99394    
    28112.      0.99394    
    28171.      0.99394    
    28230.      0.99394    
    28289.      0.99395    
    28348.      0.99395    
    28407.      0.99395    
    28466.      0.99396    
    28525.      0.99396    
    28584.      0.99396    
    28643.      0.99396    
    28702.      0.99397    
    28761.      0.99397    
    28820.      0.99397    
    28879.      0.99398    
    28938.      0.99398    
    28997.      0.99398    
    29056.      0.99398    
    29115.      0.99399    
    29174.      0.99399    
    29233.      0.99399    
    29292.      0.99399    
    29351.      0.99400    
    29410.      0.99400    
    29469.      0.99400    
    29528.      0.99400    
    29587.      0.99401    
    29646.      0.99401    
    29705.      0.99401    
    29764.      0.99401    
    29823.      0.99402    
    29882.      0.99402    
    29941.      0.99402    
    30000.      0.99402    