 Be Density=1.848 Thickness=300. microns
 Photon Energy (eV), Transmission
    500.00      0.00000    
    559.00      0.00000    
    618.00      0.00000    
    677.00      0.00000    
    736.00      0.19939E-35
    795.00      0.37333E-28
    854.00      0.97852E-23
    913.00      0.12562E-18
    972.00      0.19877E-15
    1031.0      0.67087E-13
    1090.0      0.69092E-11
    1149.0      0.28940E-09
    1208.0      0.60729E-08
    1267.0      0.74407E-07
    1326.0      0.59639E-06
    1385.0      0.34113E-05
    1444.0      0.14872E-04
    1503.0      0.51965E-04
    1562.0      0.15397E-03
    1621.0      0.39304E-03
    1680.0      0.88238E-03
    1739.0      0.17796E-02
    1798.0      0.32802E-02
    1857.0      0.56030E-02
    1916.0      0.89718E-02
    1975.0      0.13595E-01
    2034.0      0.19668E-01
    2093.0      0.27462E-01
    2152.0      0.36968E-01
    2211.0      0.48214E-01
    2270.0      0.61168E-01
    2329.0      0.75755E-01
    2388.0      0.91857E-01
    2447.0      0.10933    
    2506.0      0.12800    
    2565.0      0.14769    
    2624.0      0.16823    
    2683.0      0.18944    
    2742.0      0.21114    
    2801.0      0.23318    
    2860.0      0.25540    
    2919.0      0.27768    
    2978.0      0.29989    
    3037.0      0.32203    
    3096.0      0.34424    
    3155.0      0.36611    
    3214.0      0.38757    
    3273.0      0.40858    
    3332.0      0.42907    
    3391.0      0.44903    
    3450.0      0.46843    
    3509.0      0.48724    
    3568.0      0.50546    
    3627.0      0.52308    
    3686.0      0.54009    
    3745.0      0.55651    
    3804.0      0.57234    
    3863.0      0.58758    
    3922.0      0.60225    
    3981.0      0.61636    
    4040.0      0.62993    
    4099.0      0.64297    
    4158.0      0.65563    
    4217.0      0.66779    
    4276.0      0.67947    
    4335.0      0.69067    
    4394.0      0.70142    
    4453.0      0.71173    
    4512.0      0.72162    
    4571.0      0.73111    
    4630.0      0.74021    
    4689.0      0.74894    
    4748.0      0.75731    
    4807.0      0.76534    
    4866.0      0.77305    
    4925.0      0.78045    
    4984.0      0.78754    
    5043.0      0.79435    
    5102.0      0.80089    
    5161.0      0.80717    
    5220.0      0.81320    
    5279.0      0.81904    
    5338.0      0.82465    
    5397.0      0.83004    
    5456.0      0.83521    
    5515.0      0.84019    
    5574.0      0.84497    
    5633.0      0.84956    
    5692.0      0.85398    
    5751.0      0.85823    
    5810.0      0.86232    
    5869.0      0.86626    
    5928.0      0.87004    
    5987.0      0.87369    
    6046.0      0.87720    
    6105.0      0.88058    
    6164.0      0.88384    
    6223.0      0.88698    
    6282.0      0.89000    
    6341.0      0.89292    
    6400.0      0.89576    
    6459.0      0.89849    
    6518.0      0.90112    
    6577.0      0.90366    
    6636.0      0.90611    
    6695.0      0.90848    
    6754.0      0.91076    
    6813.0      0.91297    
    6872.0      0.91510    
    6931.0      0.91716    
    6990.0      0.91915    
    7049.0      0.92107    
    7108.0      0.92293    
    7167.0      0.92472    
    7226.0      0.92646    
    7285.0      0.92814    
    7344.0      0.92977    
    7403.0      0.93134    
    7462.0      0.93287    
    7521.0      0.93434    
    7580.0      0.93577    
    7639.0      0.93715    
    7698.0      0.93849    
    7757.0      0.93979    
    7816.0      0.94105    
    7875.0      0.94227    
    7934.0      0.94345    
    7993.0      0.94460    
    8052.0      0.94571    
    8111.0      0.94679    
    8170.0      0.94784    
    8229.0      0.94886    
    8288.0      0.94984    
    8347.0      0.95080    
    8406.0      0.95174    
    8465.0      0.95265    
    8524.0      0.95354    
    8583.0      0.95439    
    8642.0      0.95523    
    8701.0      0.95604    
    8760.0      0.95683    
    8819.0      0.95759    
    8878.0      0.95833    
    8937.0      0.95906    
    8996.0      0.95976    
    9055.0      0.96045    
    9114.0      0.96111    
    9173.0      0.96176    
    9232.0      0.96239    
    9291.0      0.96300    
    9350.0      0.96360    
    9409.0      0.96418    
    9468.0      0.96474    
    9527.0      0.96529    
    9586.0      0.96583    
    9645.0      0.96635    
    9704.0      0.96686    
    9763.0      0.96735    
    9822.0      0.96783    
    9881.0      0.96830    
    9940.0      0.96876    
    9999.0      0.96921    
    10058.      0.96965    
    10117.      0.97007    
    10176.      0.97049    
    10235.      0.97090    
    10294.      0.97130    
    10353.      0.97168    
    10412.      0.97206    
    10471.      0.97243    
    10530.      0.97279    
    10589.      0.97314    
    10648.      0.97348    
    10707.      0.97382    
    10766.      0.97415    
    10825.      0.97446    
    10884.      0.97478    
    10943.      0.97508    
    11002.      0.97538    
    11061.      0.97567    
    11120.      0.97595    
    11179.      0.97623    
    11238.      0.97650    
    11297.      0.97677    
    11356.      0.97703    
    11415.      0.97728    
    11474.      0.97753    
    11533.      0.97777    
    11592.      0.97801    
    11651.      0.97824    
    11710.      0.97846    
    11769.      0.97868    
    11828.      0.97890    
    11887.      0.97911    
    11946.      0.97932    
    12005.      0.97952    
    12064.      0.97972    
    12123.      0.97992    
    12182.      0.98011    
    12241.      0.98029    
    12300.      0.98047    
    12359.      0.98065    
    12418.      0.98083    
    12477.      0.98100    
    12536.      0.98117    
    12595.      0.98133    
    12654.      0.98150    
    12713.      0.98166    
    12772.      0.98181    
    12831.      0.98196    
    12890.      0.98211    
    12949.      0.98226    
    13008.      0.98240    
    13067.      0.98254    
    13126.      0.98268    
    13185.      0.98281    
    13244.      0.98294    
    13303.      0.98307    
    13362.      0.98320    
    13421.      0.98332    
    13480.      0.98345    
    13539.      0.98356    
    13598.      0.98368    
    13657.      0.98380    
    13716.      0.98391    
    13775.      0.98402    
    13834.      0.98413    
    13893.      0.98423    
    13952.      0.98434    
    14011.      0.98444    
    14070.      0.98454    
    14129.      0.98464    
    14188.      0.98473    
    14247.      0.98483    
    14306.      0.98492    
    14365.      0.98501    
    14424.      0.98510    
    14483.      0.98519    
    14542.      0.98527    
    14601.      0.98536    
    14660.      0.98544    
    14719.      0.98552    
    14778.      0.98560    
    14837.      0.98568    
    14896.      0.98576    
    14955.      0.98583    
    15014.      0.98591    
    15073.      0.98598    
    15132.      0.98606    
    15191.      0.98613    
    15250.      0.98620    
    15309.      0.98627    
    15368.      0.98634    
    15427.      0.98641    
    15486.      0.98648    
    15545.      0.98655    
    15604.      0.98661    
    15663.      0.98667    
    15722.      0.98674    
    15781.      0.98680    
    15840.      0.98686    
    15899.      0.98692    
    15958.      0.98698    
    16017.      0.98704    
    16076.      0.98709    
    16135.      0.98715    
    16194.      0.98720    
    16253.      0.98726    
    16312.      0.98731    
    16371.      0.98736    
    16430.      0.98742    
    16489.      0.98747    
    16548.      0.98752    
    16607.      0.98757    
    16666.      0.98761    
    16725.      0.98766    
    16784.      0.98771    
    16843.      0.98776    
    16902.      0.98780    
    16961.      0.98785    
    17020.      0.98789    
    17079.      0.98793    
    17138.      0.98798    
    17197.      0.98802    
    17256.      0.98806    
    17315.      0.98810    
    17374.      0.98814    
    17433.      0.98818    
    17492.      0.98822    
    17551.      0.98825    
    17610.      0.98829    
    17669.      0.98833    
    17728.      0.98837    
    17787.      0.98840    
    17846.      0.98844    
    17905.      0.98847    
    17964.      0.98851    
    18023.      0.98854    
    18082.      0.98857    
    18141.      0.98860    
    18200.      0.98864    
    18259.      0.98867    
    18318.      0.98870    
    18377.      0.98873    
    18436.      0.98876    
    18495.      0.98879    
    18554.      0.98882    
    18613.      0.98885    
    18672.      0.98888    
    18731.      0.98890    
    18790.      0.98893    
    18849.      0.98896    
    18908.      0.98899    
    18967.      0.98901    
    19026.      0.98904    
    19085.      0.98906    
    19144.      0.98909    
    19203.      0.98911    
    19262.      0.98914    
    19321.      0.98916    
    19380.      0.98918    
    19439.      0.98921    
    19498.      0.98923    
    19557.      0.98925    
    19616.      0.98928    
    19675.      0.98930    
    19734.      0.98932    
    19793.      0.98934    
    19852.      0.98936    
    19911.      0.98938    
    19970.      0.98940    
    20029.      0.98942    
    20088.      0.98945    
    20147.      0.98947    
    20206.      0.98949    
    20265.      0.98951    
    20324.      0.98953    
    20383.      0.98955    
    20442.      0.98957    
    20501.      0.98960    
    20560.      0.98962    
    20619.      0.98964    
    20678.      0.98965    
    20737.      0.98967    
    20796.      0.98969    
    20855.      0.98971    
    20914.      0.98973    
    20973.      0.98975    
    21032.      0.98977    
    21091.      0.98979    
    21150.      0.98980    
    21209.      0.98982    
    21268.      0.98984    
    21327.      0.98985    
    21386.      0.98987    
    21445.      0.98989    
    21504.      0.98990    
    21563.      0.98992    
    21622.      0.98994    
    21681.      0.98995    
    21740.      0.98997    
    21799.      0.98998    
    21858.      0.99000    
    21917.      0.99001    
    21976.      0.99003    
    22035.      0.99004    
    22094.      0.99006    
    22153.      0.99007    
    22212.      0.99009    
    22271.      0.99010    
    22330.      0.99011    
    22389.      0.99013    
    22448.      0.99014    
    22507.      0.99015    
    22566.      0.99017    
    22625.      0.99018    
    22684.      0.99019    
    22743.      0.99021    
    22802.      0.99022    
    22861.      0.99023    
    22920.      0.99024    
    22979.      0.99026    
    23038.      0.99027    
    23097.      0.99028    
    23156.      0.99029    
    23215.      0.99030    
    23274.      0.99031    
    23333.      0.99033    
    23392.      0.99034    
    23451.      0.99035    
    23510.      0.99036    
    23569.      0.99037    
    23628.      0.99038    
    23687.      0.99039    
    23746.      0.99040    
    23805.      0.99041    
    23864.      0.99042    
    23923.      0.99043    
    23982.      0.99044    
    24041.      0.99045    
    24100.      0.99046    
    24159.      0.99047    
    24218.      0.99048    
    24277.      0.99049    
    24336.      0.99050    
    24395.      0.99051    
    24454.      0.99052    
    24513.      0.99053    
    24572.      0.99053    
    24631.      0.99054    
    24690.      0.99055    
    24749.      0.99056    
    24808.      0.99057    
    24867.      0.99058    
    24926.      0.99059    
    24985.      0.99059    
    25044.      0.99060    
    25103.      0.99061    
    25162.      0.99062    
    25221.      0.99063    
    25280.      0.99063    
    25339.      0.99064    
    25398.      0.99065    
    25457.      0.99066    
    25516.      0.99066    
    25575.      0.99067    
    25634.      0.99068    
    25693.      0.99069    
    25752.      0.99069    
    25811.      0.99070    
    25870.      0.99071    
    25929.      0.99071    
    25988.      0.99072    
    26047.      0.99073    
    26106.      0.99073    
    26165.      0.99074    
    26224.      0.99075    
    26283.      0.99075    
    26342.      0.99076    
    26401.      0.99077    
    26460.      0.99077    
    26519.      0.99078    
    26578.      0.99078    
    26637.      0.99079    
    26696.      0.99080    
    26755.      0.99080    
    26814.      0.99081    
    26873.      0.99081    
    26932.      0.99082    
    26991.      0.99082    
    27050.      0.99083    
    27109.      0.99084    
    27168.      0.99084    
    27227.      0.99085    
    27286.      0.99085    
    27345.      0.99086    
    27404.      0.99086    
    27463.      0.99087    
    27522.      0.99087    
    27581.      0.99088    
    27640.      0.99088    
    27699.      0.99089    
    27758.      0.99089    
    27817.      0.99090    
    27876.      0.99090    
    27935.      0.99091    
    27994.      0.99091    
    28053.      0.99092    
    28112.      0.99092    
    28171.      0.99093    
    28230.      0.99093    
    28289.      0.99093    
    28348.      0.99094    
    28407.      0.99094    
    28466.      0.99095    
    28525.      0.99095    
    28584.      0.99096    
    28643.      0.99096    
    28702.      0.99096    
    28761.      0.99097    
    28820.      0.99097    
    28879.      0.99098    
    28938.      0.99098    
    28997.      0.99098    
    29056.      0.99099    
    29115.      0.99099    
    29174.      0.99100    
    29233.      0.99100    
    29292.      0.99100    
    29351.      0.99101    
    29410.      0.99101    
    29469.      0.99102    
    29528.      0.99102    
    29587.      0.99102    
    29646.      0.99103    
    29705.      0.99103    
    29764.      0.99103    
    29823.      0.99104    
    29882.      0.99104    
    29941.      0.99104    
    30000.      0.99105    