 Be Density=1.848 Thickness=400. microns
 Photon Energy (eV), Transmission
    500.00      0.00000    
    559.00      0.00000    
    618.00      0.00000    
    677.00      0.00000    
    736.00      0.00000    
    795.00      0.12477E-37
    854.00      0.20930E-30
    913.00      0.62914E-25
    972.00      0.11601E-20
    1031.0      0.27260E-17
    1090.0      0.13160E-14
    1149.0      0.19142E-12
    1208.0      0.11080E-10
    1267.0      0.31295E-09
    1326.0      0.50201E-08
    1385.0      0.51353E-07
    1444.0      0.36573E-06
    1503.0      0.19392E-05
    1562.0      0.82527E-05
    1621.0      0.28790E-04
    1680.0      0.84633E-04
    1739.0      0.21566E-03
    1798.0      0.48738E-03
    1857.0      0.99516E-03
    1916.0      0.18643E-02
    1975.0      0.32445E-02
    2034.0      0.53092E-02
    2093.0      0.82854E-02
    2152.0      0.12315E-01
    2211.0      0.17548E-01
    2270.0      0.24101E-01
    2329.0      0.32054E-01
    2388.0      0.41446E-01
    2447.0      0.52275E-01
    2506.0      0.64506E-01
    2565.0      0.78069E-01
    2624.0      0.92871E-01
    2683.0      0.10880    
    2742.0      0.12573    
    2801.0      0.14352    
    2860.0      0.16204    
    2919.0      0.18116    
    2978.0      0.20073    
    3037.0      0.22073    
    3096.0      0.24126    
    3155.0      0.26191    
    3214.0      0.28258    
    3273.0      0.30318    
    3332.0      0.32363    
    3391.0      0.34385    
    3450.0      0.36380    
    3509.0      0.38341    
    3568.0      0.40264    
    3627.0      0.42146    
    3686.0      0.43984    
    3745.0      0.45776    
    3804.0      0.47519    
    3863.0      0.49214    
    3922.0      0.50859    
    3981.0      0.52454    
    4040.0      0.53999    
    4099.0      0.55495    
    4158.0      0.56957    
    4217.0      0.58370    
    4276.0      0.59734    
    4335.0      0.61051    
    4394.0      0.62321    
    4453.0      0.63546    
    4512.0      0.64726    
    4571.0      0.65863    
    4630.0      0.66958    
    4689.0      0.68013    
    4748.0      0.69029    
    4807.0      0.70007    
    4866.0      0.70949    
    4925.0      0.71855    
    4984.0      0.72727    
    5043.0      0.73567    
    5102.0      0.74376    
    5161.0      0.75154    
    5220.0      0.75904    
    5279.0      0.76631    
    5338.0      0.77332    
    5397.0      0.78006    
    5456.0      0.78656    
    5515.0      0.79281    
    5574.0      0.79883    
    5633.0      0.80463    
    5692.0      0.81021    
    5751.0      0.81560    
    5810.0      0.82078    
    5869.0      0.82578    
    5928.0      0.83059    
    5987.0      0.83524    
    6046.0      0.83971    
    6105.0      0.84403    
    6164.0      0.84820    
    6223.0      0.85222    
    6282.0      0.85610    
    6341.0      0.85984    
    6400.0      0.86348    
    6459.0      0.86699    
    6518.0      0.87038    
    6577.0      0.87366    
    6636.0      0.87682    
    6695.0      0.87987    
    6754.0      0.88282    
    6813.0      0.88568    
    6872.0      0.88843    
    6931.0      0.89110    
    6990.0      0.89368    
    7049.0      0.89617    
    7108.0      0.89858    
    7167.0      0.90091    
    7226.0      0.90317    
    7285.0      0.90536    
    7344.0      0.90747    
    7403.0      0.90952    
    7462.0      0.91151    
    7521.0      0.91343    
    7580.0      0.91529    
    7639.0      0.91709    
    7698.0      0.91884    
    7757.0      0.92054    
    7816.0      0.92218    
    7875.0      0.92377    
    7934.0      0.92532    
    7993.0      0.92682    
    8052.0      0.92828    
    8111.0      0.92969    
    8170.0      0.93106    
    8229.0      0.93239    
    8288.0      0.93369    
    8347.0      0.93495    
    8406.0      0.93618    
    8465.0      0.93737    
    8524.0      0.93853    
    8583.0      0.93966    
    8642.0      0.94075    
    8701.0      0.94182    
    8760.0      0.94285    
    8819.0      0.94386    
    8878.0      0.94484    
    8937.0      0.94579    
    8996.0      0.94671    
    9055.0      0.94761    
    9114.0      0.94849    
    9173.0      0.94934    
    9232.0      0.95017    
    9291.0      0.95097    
    9350.0      0.95176    
    9409.0      0.95252    
    9468.0      0.95327    
    9527.0      0.95399    
    9586.0      0.95470    
    9645.0      0.95538    
    9704.0      0.95605    
    9763.0      0.95671    
    9822.0      0.95734    
    9881.0      0.95796    
    9940.0      0.95857    
    9999.0      0.95916    
    10058.      0.95973    
    10117.      0.96030    
    10176.      0.96085    
    10235.      0.96139    
    10294.      0.96191    
    10353.      0.96242    
    10412.      0.96292    
    10471.      0.96341    
    10530.      0.96388    
    10589.      0.96435    
    10648.      0.96480    
    10707.      0.96524    
    10766.      0.96568    
    10825.      0.96610    
    10884.      0.96651    
    10943.      0.96691    
    11002.      0.96731    
    11061.      0.96769    
    11120.      0.96807    
    11179.      0.96843    
    11238.      0.96879    
    11297.      0.96914    
    11356.      0.96949    
    11415.      0.96982    
    11474.      0.97015    
    11533.      0.97047    
    11592.      0.97078    
    11651.      0.97109    
    11710.      0.97139    
    11769.      0.97168    
    11828.      0.97197    
    11887.      0.97225    
    11946.      0.97252    
    12005.      0.97279    
    12064.      0.97305    
    12123.      0.97331    
    12182.      0.97356    
    12241.      0.97381    
    12300.      0.97405    
    12359.      0.97429    
    12418.      0.97452    
    12477.      0.97475    
    12536.      0.97497    
    12595.      0.97519    
    12654.      0.97540    
    12713.      0.97562    
    12772.      0.97582    
    12831.      0.97602    
    12890.      0.97622    
    12949.      0.97641    
    13008.      0.97660    
    13067.      0.97679    
    13126.      0.97697    
    13185.      0.97715    
    13244.      0.97732    
    13303.      0.97749    
    13362.      0.97766    
    13421.      0.97783    
    13480.      0.97799    
    13539.      0.97815    
    13598.      0.97830    
    13657.      0.97845    
    13716.      0.97860    
    13775.      0.97875    
    13834.      0.97889    
    13893.      0.97903    
    13952.      0.97917    
    14011.      0.97931    
    14070.      0.97944    
    14129.      0.97957    
    14188.      0.97970    
    14247.      0.97982    
    14306.      0.97994    
    14365.      0.98006    
    14424.      0.98018    
    14483.      0.98030    
    14542.      0.98041    
    14601.      0.98052    
    14660.      0.98063    
    14719.      0.98074    
    14778.      0.98085    
    14837.      0.98095    
    14896.      0.98105    
    14955.      0.98115    
    15014.      0.98125    
    15073.      0.98135    
    15132.      0.98145    
    15191.      0.98155    
    15250.      0.98165    
    15309.      0.98174    
    15368.      0.98183    
    15427.      0.98192    
    15486.      0.98201    
    15545.      0.98210    
    15604.      0.98219    
    15663.      0.98227    
    15722.      0.98236    
    15781.      0.98244    
    15840.      0.98252    
    15899.      0.98260    
    15958.      0.98268    
    16017.      0.98275    
    16076.      0.98283    
    16135.      0.98290    
    16194.      0.98298    
    16253.      0.98305    
    16312.      0.98312    
    16371.      0.98319    
    16430.      0.98326    
    16489.      0.98332    
    16548.      0.98339    
    16607.      0.98346    
    16666.      0.98352    
    16725.      0.98358    
    16784.      0.98365    
    16843.      0.98371    
    16902.      0.98377    
    16961.      0.98383    
    17020.      0.98389    
    17079.      0.98394    
    17138.      0.98400    
    17197.      0.98405    
    17256.      0.98411    
    17315.      0.98416    
    17374.      0.98422    
    17433.      0.98427    
    17492.      0.98432    
    17551.      0.98437    
    17610.      0.98442    
    17669.      0.98447    
    17728.      0.98452    
    17787.      0.98457    
    17846.      0.98461    
    17905.      0.98466    
    17964.      0.98470    
    18023.      0.98475    
    18082.      0.98479    
    18141.      0.98483    
    18200.      0.98488    
    18259.      0.98492    
    18318.      0.98496    
    18377.      0.98500    
    18436.      0.98504    
    18495.      0.98508    
    18554.      0.98512    
    18613.      0.98516    
    18672.      0.98520    
    18731.      0.98523    
    18790.      0.98527    
    18849.      0.98531    
    18908.      0.98534    
    18967.      0.98538    
    19026.      0.98541    
    19085.      0.98544    
    19144.      0.98548    
    19203.      0.98551    
    19262.      0.98554    
    19321.      0.98557    
    19380.      0.98561    
    19439.      0.98564    
    19498.      0.98567    
    19557.      0.98570    
    19616.      0.98573    
    19675.      0.98576    
    19734.      0.98578    
    19793.      0.98581    
    19852.      0.98584    
    19911.      0.98587    
    19970.      0.98590    
    20029.      0.98592    
    20088.      0.98595    
    20147.      0.98598    
    20206.      0.98601    
    20265.      0.98604    
    20324.      0.98607    
    20383.      0.98610    
    20442.      0.98612    
    20501.      0.98615    
    20560.      0.98618    
    20619.      0.98620    
    20678.      0.98623    
    20737.      0.98626    
    20796.      0.98628    
    20855.      0.98631    
    20914.      0.98633    
    20973.      0.98636    
    21032.      0.98638    
    21091.      0.98640    
    21150.      0.98643    
    21209.      0.98645    
    21268.      0.98647    
    21327.      0.98650    
    21386.      0.98652    
    21445.      0.98654    
    21504.      0.98656    
    21563.      0.98658    
    21622.      0.98661    
    21681.      0.98663    
    21740.      0.98665    
    21799.      0.98667    
    21858.      0.98669    
    21917.      0.98671    
    21976.      0.98673    
    22035.      0.98675    
    22094.      0.98677    
    22153.      0.98679    
    22212.      0.98680    
    22271.      0.98682    
    22330.      0.98684    
    22389.      0.98686    
    22448.      0.98688    
    22507.      0.98689    
    22566.      0.98691    
    22625.      0.98693    
    22684.      0.98695    
    22743.      0.98696    
    22802.      0.98698    
    22861.      0.98700    
    22920.      0.98701    
    22979.      0.98703    
    23038.      0.98704    
    23097.      0.98706    
    23156.      0.98708    
    23215.      0.98709    
    23274.      0.98711    
    23333.      0.98712    
    23392.      0.98714    
    23451.      0.98715    
    23510.      0.98717    
    23569.      0.98718    
    23628.      0.98719    
    23687.      0.98721    
    23746.      0.98722    
    23805.      0.98724    
    23864.      0.98725    
    23923.      0.98726    
    23982.      0.98728    
    24041.      0.98729    
    24100.      0.98730    
    24159.      0.98731    
    24218.      0.98733    
    24277.      0.98734    
    24336.      0.98735    
    24395.      0.98736    
    24454.      0.98738    
    24513.      0.98739    
    24572.      0.98740    
    24631.      0.98741    
    24690.      0.98742    
    24749.      0.98743    
    24808.      0.98744    
    24867.      0.98746    
    24926.      0.98747    
    24985.      0.98748    
    25044.      0.98749    
    25103.      0.98750    
    25162.      0.98751    
    25221.      0.98752    
    25280.      0.98753    
    25339.      0.98754    
    25398.      0.98755    
    25457.      0.98756    
    25516.      0.98757    
    25575.      0.98758    
    25634.      0.98759    
    25693.      0.98760    
    25752.      0.98761    
    25811.      0.98762    
    25870.      0.98763    
    25929.      0.98764    
    25988.      0.98765    
    26047.      0.98765    
    26106.      0.98766    
    26165.      0.98767    
    26224.      0.98768    
    26283.      0.98769    
    26342.      0.98770    
    26401.      0.98771    
    26460.      0.98771    
    26519.      0.98772    
    26578.      0.98773    
    26637.      0.98774    
    26696.      0.98775    
    26755.      0.98775    
    26814.      0.98776    
    26873.      0.98777    
    26932.      0.98778    
    26991.      0.98778    
    27050.      0.98779    
    27109.      0.98780    
    27168.      0.98781    
    27227.      0.98781    
    27286.      0.98782    
    27345.      0.98783    
    27404.      0.98783    
    27463.      0.98784    
    27522.      0.98785    
    27581.      0.98786    
    27640.      0.98786    
    27699.      0.98787    
    27758.      0.98788    
    27817.      0.98788    
    27876.      0.98789    
    27935.      0.98789    
    27994.      0.98790    
    28053.      0.98791    
    28112.      0.98791    
    28171.      0.98792    
    28230.      0.98793    
    28289.      0.98793    
    28348.      0.98794    
    28407.      0.98794    
    28466.      0.98795    
    28525.      0.98795    
    28584.      0.98796    
    28643.      0.98797    
    28702.      0.98797    
    28761.      0.98798    
    28820.      0.98798    
    28879.      0.98799    
    28938.      0.98799    
    28997.      0.98800    
    29056.      0.98800    
    29115.      0.98801    
    29174.      0.98801    
    29233.      0.98802    
    29292.      0.98802    
    29351.      0.98803    
    29410.      0.98803    
    29469.      0.98804    
    29528.      0.98804    
    29587.      0.98805    
    29646.      0.98805    
    29705.      0.98806    
    29764.      0.98806    
    29823.      0.98807    
    29882.      0.98807    
    29941.      0.98807    
    30000.      0.98808    