 Be Density=1.848 Thickness=700. microns
 Photon Energy (eV), Transmission
    500.00      0.00000    
    559.00      0.00000    
    618.00      0.00000    
    677.00      0.00000    
    736.00      0.00000    
    795.00      0.00000    
    854.00      0.00000    
    913.00      0.84078E-44
    972.00      0.23059E-36
    1031.0      0.18288E-30
    1090.0      0.90922E-26
    1149.0      0.55398E-22
    1208.0      0.67285E-19
    1267.0      0.23286E-16
    1326.0      0.29939E-14
    1385.0      0.17518E-12
    1444.0      0.54391E-11
    1503.0      0.10077E-09
    1562.0      0.12707E-08
    1621.0      0.11316E-07
    1680.0      0.74678E-07
    1739.0      0.38381E-06
    1798.0      0.15987E-05
    1857.0      0.55759E-05
    1916.0      0.16726E-04
    1975.0      0.44108E-04
    2034.0      0.10442E-03
    2093.0      0.22753E-03
    2152.0      0.45527E-03
    2211.0      0.84605E-03
    2270.0      0.14742E-02
    2329.0      0.24283E-02
    2388.0      0.38071E-02
    2447.0      0.57150E-02
    2506.0      0.82567E-02
    2565.0      0.11530E-01
    2624.0      0.15624E-01
    2683.0      0.20611E-01
    2742.0      0.26547E-01
    2801.0      0.33466E-01
    2860.0      0.41386E-01
    2919.0      0.50304E-01
    2978.0      0.60199E-01
    3037.0      0.71082E-01
    3096.0      0.83051E-01
    3155.0      0.95887E-01
    3214.0      0.10952    
    3273.0      0.12387    
    3332.0      0.13886    
    3391.0      0.15440    
    3450.0      0.17041    
    3509.0      0.18681    
    3568.0      0.20352    
    3627.0      0.22046    
    3686.0      0.23755    
    3745.0      0.25475    
    3804.0      0.27197    
    3863.0      0.28917    
    3922.0      0.30630    
    3981.0      0.32331    
    4040.0      0.34016    
    4099.0      0.35681    
    4158.0      0.37342    
    4217.0      0.38979    
    4276.0      0.40588    
    4335.0      0.42166    
    4394.0      0.43713    
    4453.0      0.45227    
    4512.0      0.46708    
    4571.0      0.48153    
    4630.0      0.49563    
    4689.0      0.50938    
    4748.0      0.52276    
    4807.0      0.53579    
    4866.0      0.54847    
    4925.0      0.56079    
    4984.0      0.57276    
    5043.0      0.58439    
    5102.0      0.59567    
    5161.0      0.60662    
    5220.0      0.61725    
    5279.0      0.62764    
    5338.0      0.63772    
    5397.0      0.64748    
    5456.0      0.65694    
    5515.0      0.66611    
    5574.0      0.67499    
    5633.0      0.68358    
    5692.0      0.69191    
    5751.0      0.69997    
    5810.0      0.70778    
    5869.0      0.71534    
    5928.0      0.72265    
    5987.0      0.72974    
    6046.0      0.73660    
    6105.0      0.74324    
    6164.0      0.74967    
    6223.0      0.75590    
    6282.0      0.76193    
    6341.0      0.76778    
    6400.0      0.77347    
    6459.0      0.77898    
    6518.0      0.78432    
    6577.0      0.78949    
    6636.0      0.79450    
    6695.0      0.79935    
    6754.0      0.80404    
    6813.0      0.80860    
    6872.0      0.81301    
    6931.0      0.81728    
    6990.0      0.82142    
    7049.0      0.82543    
    7108.0      0.82933    
    7167.0      0.83310    
    7226.0      0.83676    
    7285.0      0.84030    
    7344.0      0.84374    
    7403.0      0.84708    
    7462.0      0.85031    
    7521.0      0.85345    
    7580.0      0.85650    
    7639.0      0.85946    
    7698.0      0.86233    
    7757.0      0.86511    
    7816.0      0.86782    
    7875.0      0.87044    
    7934.0      0.87299    
    7993.0      0.87547    
    8052.0      0.87788    
    8111.0      0.88022    
    8170.0      0.88250    
    8229.0      0.88471    
    8288.0      0.88686    
    8347.0      0.88895    
    8406.0      0.89100    
    8465.0      0.89299    
    8524.0      0.89492    
    8583.0      0.89681    
    8642.0      0.89864    
    8701.0      0.90041    
    8760.0      0.90215    
    8819.0      0.90383    
    8878.0      0.90547    
    8937.0      0.90706    
    8996.0      0.90862    
    9055.0      0.91013    
    9114.0      0.91160    
    9173.0      0.91303    
    9232.0      0.91443    
    9291.0      0.91579    
    9350.0      0.91711    
    9409.0      0.91840    
    9468.0      0.91965    
    9527.0      0.92088    
    9586.0      0.92207    
    9645.0      0.92323    
    9704.0      0.92437    
    9763.0      0.92547    
    9822.0      0.92655    
    9881.0      0.92760    
    9940.0      0.92862    
    9999.0      0.92962    
    10058.      0.93060    
    10117.      0.93156    
    10176.      0.93250    
    10235.      0.93341    
    10294.      0.93430    
    10353.      0.93517    
    10412.      0.93602    
    10471.      0.93685    
    10530.      0.93766    
    10589.      0.93845    
    10648.      0.93922    
    10707.      0.93997    
    10766.      0.94071    
    10825.      0.94143    
    10884.      0.94213    
    10943.      0.94282    
    11002.      0.94349    
    11061.      0.94415    
    11120.      0.94479    
    11179.      0.94541    
    11238.      0.94603    
    11297.      0.94663    
    11356.      0.94721    
    11415.      0.94779    
    11474.      0.94835    
    11533.      0.94889    
    11592.      0.94943    
    11651.      0.94995    
    11710.      0.95047    
    11769.      0.95097    
    11828.      0.95146    
    11887.      0.95194    
    11946.      0.95241    
    12005.      0.95287    
    12064.      0.95332    
    12123.      0.95376    
    12182.      0.95420    
    12241.      0.95462    
    12300.      0.95503    
    12359.      0.95544    
    12418.      0.95584    
    12477.      0.95623    
    12536.      0.95661    
    12595.      0.95699    
    12654.      0.95736    
    12713.      0.95772    
    12772.      0.95807    
    12831.      0.95842    
    12890.      0.95876    
    12949.      0.95909    
    13008.      0.95942    
    13067.      0.95973    
    13126.      0.96005    
    13185.      0.96035    
    13244.      0.96065    
    13303.      0.96095    
    13362.      0.96124    
    13421.      0.96152    
    13480.      0.96180    
    13539.      0.96207    
    13598.      0.96234    
    13657.      0.96260    
    13716.      0.96286    
    13775.      0.96311    
    13834.      0.96335    
    13893.      0.96360    
    13952.      0.96383    
    14011.      0.96407    
    14070.      0.96430    
    14129.      0.96452    
    14188.      0.96474    
    14247.      0.96495    
    14306.      0.96517    
    14365.      0.96537    
    14424.      0.96558    
    14483.      0.96578    
    14542.      0.96597    
    14601.      0.96617    
    14660.      0.96636    
    14719.      0.96654    
    14778.      0.96672    
    14837.      0.96690    
    14896.      0.96708    
    14955.      0.96725    
    15014.      0.96742    
    15073.      0.96760    
    15132.      0.96777    
    15191.      0.96794    
    15250.      0.96810    
    15309.      0.96826    
    15368.      0.96842    
    15427.      0.96858    
    15486.      0.96873    
    15545.      0.96889    
    15604.      0.96904    
    15663.      0.96918    
    15722.      0.96933    
    15781.      0.96947    
    15840.      0.96961    
    15899.      0.96974    
    15958.      0.96988    
    16017.      0.97001    
    16076.      0.97014    
    16135.      0.97027    
    16194.      0.97040    
    16253.      0.97052    
    16312.      0.97064    
    16371.      0.97076    
    16430.      0.97088    
    16489.      0.97100    
    16548.      0.97111    
    16607.      0.97123    
    16666.      0.97134    
    16725.      0.97145    
    16784.      0.97156    
    16843.      0.97166    
    16902.      0.97177    
    16961.      0.97187    
    17020.      0.97197    
    17079.      0.97207    
    17138.      0.97217    
    17197.      0.97226    
    17256.      0.97236    
    17315.      0.97245    
    17374.      0.97254    
    17433.      0.97263    
    17492.      0.97272    
    17551.      0.97281    
    17610.      0.97290    
    17669.      0.97298    
    17728.      0.97306    
    17787.      0.97315    
    17846.      0.97323    
    17905.      0.97331    
    17964.      0.97338    
    18023.      0.97346    
    18082.      0.97354    
    18141.      0.97361    
    18200.      0.97369    
    18259.      0.97376    
    18318.      0.97383    
    18377.      0.97390    
    18436.      0.97397    
    18495.      0.97404    
    18554.      0.97410    
    18613.      0.97417    
    18672.      0.97424    
    18731.      0.97430    
    18790.      0.97436    
    18849.      0.97443    
    18908.      0.97449    
    18967.      0.97455    
    19026.      0.97461    
    19085.      0.97467    
    19144.      0.97472    
    19203.      0.97478    
    19262.      0.97484    
    19321.      0.97489    
    19380.      0.97495    
    19439.      0.97500    
    19498.      0.97505    
    19557.      0.97510    
    19616.      0.97516    
    19675.      0.97521    
    19734.      0.97526    
    19793.      0.97531    
    19852.      0.97535    
    19911.      0.97540    
    19970.      0.97545    
    20029.      0.97550    
    20088.      0.97555    
    20147.      0.97560    
    20206.      0.97565    
    20265.      0.97570    
    20324.      0.97575    
    20383.      0.97580    
    20442.      0.97584    
    20501.      0.97589    
    20560.      0.97594    
    20619.      0.97598    
    20678.      0.97603    
    20737.      0.97607    
    20796.      0.97612    
    20855.      0.97616    
    20914.      0.97620    
    20973.      0.97624    
    21032.      0.97629    
    21091.      0.97633    
    21150.      0.97637    
    21209.      0.97641    
    21268.      0.97645    
    21327.      0.97649    
    21386.      0.97653    
    21445.      0.97656    
    21504.      0.97660    
    21563.      0.97664    
    21622.      0.97668    
    21681.      0.97671    
    21740.      0.97675    
    21799.      0.97678    
    21858.      0.97682    
    21917.      0.97685    
    21976.      0.97689    
    22035.      0.97692    
    22094.      0.97696    
    22153.      0.97699    
    22212.      0.97702    
    22271.      0.97705    
    22330.      0.97709    
    22389.      0.97712    
    22448.      0.97715    
    22507.      0.97718    
    22566.      0.97721    
    22625.      0.97724    
    22684.      0.97727    
    22743.      0.97730    
    22802.      0.97733    
    22861.      0.97736    
    22920.      0.97738    
    22979.      0.97741    
    23038.      0.97744    
    23097.      0.97747    
    23156.      0.97749    
    23215.      0.97752    
    23274.      0.97755    
    23333.      0.97757    
    23392.      0.97760    
    23451.      0.97762    
    23510.      0.97765    
    23569.      0.97767    
    23628.      0.97770    
    23687.      0.97772    
    23746.      0.97775    
    23805.      0.97777    
    23864.      0.97779    
    23923.      0.97782    
    23982.      0.97784    
    24041.      0.97786    
    24100.      0.97788    
    24159.      0.97791    
    24218.      0.97793    
    24277.      0.97795    
    24336.      0.97797    
    24395.      0.97799    
    24454.      0.97801    
    24513.      0.97803    
    24572.      0.97805    
    24631.      0.97807    
    24690.      0.97809    
    24749.      0.97811    
    24808.      0.97813    
    24867.      0.97815    
    24926.      0.97817    
    24985.      0.97819    
    25044.      0.97821    
    25103.      0.97823    
    25162.      0.97824    
    25221.      0.97826    
    25280.      0.97828    
    25339.      0.97830    
    25398.      0.97832    
    25457.      0.97833    
    25516.      0.97835    
    25575.      0.97837    
    25634.      0.97838    
    25693.      0.97840    
    25752.      0.97842    
    25811.      0.97843    
    25870.      0.97845    
    25929.      0.97846    
    25988.      0.97848    
    26047.      0.97850    
    26106.      0.97851    
    26165.      0.97853    
    26224.      0.97854    
    26283.      0.97856    
    26342.      0.97857    
    26401.      0.97858    
    26460.      0.97860    
    26519.      0.97861    
    26578.      0.97863    
    26637.      0.97864    
    26696.      0.97865    
    26755.      0.97867    
    26814.      0.97868    
    26873.      0.97869    
    26932.      0.97871    
    26991.      0.97872    
    27050.      0.97873    
    27109.      0.97875    
    27168.      0.97876    
    27227.      0.97877    
    27286.      0.97878    
    27345.      0.97880    
    27404.      0.97881    
    27463.      0.97882    
    27522.      0.97883    
    27581.      0.97884    
    27640.      0.97886    
    27699.      0.97887    
    27758.      0.97888    
    27817.      0.97889    
    27876.      0.97890    
    27935.      0.97891    
    27994.      0.97892    
    28053.      0.97893    
    28112.      0.97894    
    28171.      0.97895    
    28230.      0.97896    
    28289.      0.97898    
    28348.      0.97899    
    28407.      0.97900    
    28466.      0.97901    
    28525.      0.97902    
    28584.      0.97903    
    28643.      0.97903    
    28702.      0.97904    
    28761.      0.97905    
    28820.      0.97906    
    28879.      0.97907    
    28938.      0.97908    
    28997.      0.97909    
    29056.      0.97910    
    29115.      0.97911    
    29174.      0.97912    
    29233.      0.97913    
    29292.      0.97914    
    29351.      0.97914    
    29410.      0.97915    
    29469.      0.97916    
    29528.      0.97917    
    29587.      0.97918    
    29646.      0.97919    
    29705.      0.97919    
    29764.      0.97920    
    29823.      0.97921    
    29882.      0.97922    
    29941.      0.97922    
    30000.      0.97923    