 C8H8 Density=1.11 Thickness=5000. microns
 Photon Energy (eV), Transmission
    500.00      0.00000    
    559.00      0.00000    
    618.00      0.00000    
    677.00      0.00000    
    736.00      0.00000    
    795.00      0.00000    
    854.00      0.00000    
    913.00      0.00000    
    972.00      0.00000    
    1031.0      0.00000    
    1090.0      0.00000    
    1149.0      0.00000    
    1208.0      0.00000    
    1267.0      0.00000    
    1326.0      0.00000    
    1385.0      0.00000    
    1444.0      0.00000    
    1503.0      0.00000    
    1562.0      0.00000    
    1621.0      0.00000    
    1680.0      0.00000    
    1739.0      0.00000    
    1798.0      0.00000    
    1857.0      0.00000    
    1916.0      0.00000    
    1975.0      0.00000    
    2034.0      0.00000    
    2093.0      0.00000    
    2152.0      0.00000    
    2211.0      0.00000    
    2270.0      0.00000    
    2329.0      0.12892E-42
    2388.0      0.15144E-39
    2447.0      0.92560E-37
    2506.0      0.31785E-34
    2565.0      0.65021E-32
    2624.0      0.84197E-30
    2683.0      0.72097E-28
    2742.0      0.42770E-26
    2801.0      0.18179E-24
    2860.0      0.57334E-23
    2919.0      0.13813E-21
    2978.0      0.26064E-20
    3037.0      0.39436E-19
    3096.0      0.48838E-18
    3155.0      0.50369E-17
    3214.0      0.43977E-16
    3273.0      0.32988E-15
    3332.0      0.21537E-14
    3391.0      0.12378E-13
    3450.0      0.63325E-13
    3509.0      0.29103E-12
    3568.0      0.12122E-11
    3627.0      0.46112E-11
    3686.0      0.16129E-10
    3745.0      0.52217E-10
    3804.0      0.15742E-09
    3863.0      0.44426E-09
    3922.0      0.11789E-08
    3981.0      0.29528E-08
    4040.0      0.69813E-08
    4099.0      0.15809E-07
    4158.0      0.34201E-07
    4217.0      0.70858E-07
    4276.0      0.14108E-06
    4335.0      0.27061E-06
    4394.0      0.50122E-06
    4453.0      0.89853E-06
    4512.0      0.15628E-05
    4571.0      0.26420E-05
    4630.0      0.43491E-05
    4689.0      0.69815E-05
    4748.0      0.10945E-04
    4807.0      0.16785E-04
    4866.0      0.25213E-04
    4925.0      0.37139E-04
    4984.0      0.53706E-04
    5043.0      0.76338E-04
    5102.0      0.10676E-03
    5161.0      0.14701E-03
    5220.0      0.19949E-03
    5279.0      0.26708E-03
    5338.0      0.35296E-03
    5397.0      0.46074E-03
    5456.0      0.59457E-03
    5515.0      0.75885E-03
    5574.0      0.95836E-03
    5633.0      0.11983E-02
    5692.0      0.14844E-02
    5751.0      0.18228E-02
    5810.0      0.22196E-02
    5869.0      0.26814E-02
    5928.0      0.32146E-02
    5987.0      0.38257E-02
    6046.0      0.45217E-02
    6105.0      0.53094E-02
    6164.0      0.61962E-02
    6223.0      0.71884E-02
    6282.0      0.82923E-02
    6341.0      0.95140E-02
    6400.0      0.10860E-01
    6459.0      0.12335E-01
    6518.0      0.13944E-01
    6577.0      0.15694E-01
    6636.0      0.17587E-01
    6695.0      0.19628E-01
    6754.0      0.21821E-01
    6813.0      0.24167E-01
    6872.0      0.26670E-01
    6931.0      0.29333E-01
    6990.0      0.32155E-01
    7049.0      0.35138E-01
    7108.0      0.38283E-01
    7167.0      0.41588E-01
    7226.0      0.45053E-01
    7285.0      0.48678E-01
    7344.0      0.52460E-01
    7403.0      0.56396E-01
    7462.0      0.60487E-01
    7521.0      0.64729E-01
    7580.0      0.69118E-01
    7639.0      0.73650E-01
    7698.0      0.78323E-01
    7757.0      0.83131E-01
    7816.0      0.88070E-01
    7875.0      0.93139E-01
    7934.0      0.98329E-01
    7993.0      0.10364    
    8052.0      0.10906    
    8111.0      0.11460    
    8170.0      0.12024    
    8229.0      0.12598    
    8288.0      0.13181    
    8347.0      0.13772    
    8406.0      0.14372    
    8465.0      0.14980    
    8524.0      0.15595    
    8583.0      0.16216    
    8642.0      0.16844    
    8701.0      0.17477    
    8760.0      0.18115    
    8819.0      0.18758    
    8878.0      0.19405    
    8937.0      0.20056    
    8996.0      0.20709    
    9055.0      0.21366    
    9114.0      0.22025    
    9173.0      0.22685    
    9232.0      0.23347    
    9291.0      0.24010    
    9350.0      0.24674    
    9409.0      0.25338    
    9468.0      0.26001    
    9527.0      0.26665    
    9586.0      0.27327    
    9645.0      0.27989    
    9704.0      0.28649    
    9763.0      0.29308    
    9822.0      0.29964    
    9881.0      0.30618    
    9940.0      0.31269    
    9999.0      0.31918    
    10058.      0.32565    
    10117.      0.33209    
    10176.      0.33849    
    10235.      0.34485    
    10294.      0.35119    
    10353.      0.35747    
    10412.      0.36372    
    10471.      0.36993    
    10530.      0.37609    
    10589.      0.38220    
    10648.      0.38827    
    10707.      0.39429    
    10766.      0.40026    
    10825.      0.40619    
    10884.      0.41206    
    10943.      0.41788    
    11002.      0.42364    
    11061.      0.42936    
    11120.      0.43502    
    11179.      0.44062    
    11238.      0.44617    
    11297.      0.45167    
    11356.      0.45711    
    11415.      0.46250    
    11474.      0.46782    
    11533.      0.47310    
    11592.      0.47831    
    11651.      0.48347    
    11710.      0.48857    
    11769.      0.49362    
    11828.      0.49861    
    11887.      0.50354    
    11946.      0.50842    
    12005.      0.51323    
    12064.      0.51800    
    12123.      0.52270    
    12182.      0.52735    
    12241.      0.53195    
    12300.      0.53649    
    12359.      0.54098    
    12418.      0.54541    
    12477.      0.54978    
    12536.      0.55410    
    12595.      0.55837    
    12654.      0.56259    
    12713.      0.56675    
    12772.      0.57086    
    12831.      0.57491    
    12890.      0.57892    
    12949.      0.58287    
    13008.      0.58677    
    13067.      0.59062    
    13126.      0.59442    
    13185.      0.59818    
    13244.      0.60188    
    13303.      0.60554    
    13362.      0.60914    
    13421.      0.61270    
    13480.      0.61621    
    13539.      0.61968    
    13598.      0.62310    
    13657.      0.62647    
    13716.      0.62980    
    13775.      0.63309    
    13834.      0.63632    
    13893.      0.63952    
    13952.      0.64267    
    14011.      0.64579    
    14070.      0.64885    
    14129.      0.65188    
    14188.      0.65487    
    14247.      0.65781    
    14306.      0.66072    
    14365.      0.66359    
    14424.      0.66641    
    14483.      0.66920    
    14542.      0.67195    
    14601.      0.67467    
    14660.      0.67734    
    14719.      0.67998    
    14778.      0.68258    
    14837.      0.68515    
    14896.      0.68768    
    14955.      0.69018    
    15014.      0.69265    
    15073.      0.69510    
    15132.      0.69752    
    15191.      0.69990    
    15250.      0.70225    
    15309.      0.70457    
    15368.      0.70686    
    15427.      0.70912    
    15486.      0.71134    
    15545.      0.71354    
    15604.      0.71571    
    15663.      0.71785    
    15722.      0.71995    
    15781.      0.72203    
    15840.      0.72408    
    15899.      0.72611    
    15958.      0.72810    
    16017.      0.73007    
    16076.      0.73202    
    16135.      0.73393    
    16194.      0.73582    
    16253.      0.73769    
    16312.      0.73953    
    16371.      0.74134    
    16430.      0.74313    
    16489.      0.74490    
    16548.      0.74664    
    16607.      0.74836    
    16666.      0.75006    
    16725.      0.75174    
    16784.      0.75339    
    16843.      0.75502    
    16902.      0.75662    
    16961.      0.75821    
    17020.      0.75978    
    17079.      0.76132    
    17138.      0.76284    
    17197.      0.76435    
    17256.      0.76583    
    17315.      0.76729    
    17374.      0.76874    
    17433.      0.77016    
    17492.      0.77157    
    17551.      0.77296    
    17610.      0.77433    
    17669.      0.77568    
    17728.      0.77701    
    17787.      0.77833    
    17846.      0.77963    
    17905.      0.78091    
    17964.      0.78217    
    18023.      0.78342    
    18082.      0.78465    
    18141.      0.78587    
    18200.      0.78707    
    18259.      0.78825    
    18318.      0.78942    
    18377.      0.79058    
    18436.      0.79172    
    18495.      0.79284    
    18554.      0.79395    
    18613.      0.79504    
    18672.      0.79613    
    18731.      0.79719    
    18790.      0.79825    
    18849.      0.79929    
    18908.      0.80031    
    18967.      0.80133    
    19026.      0.80233    
    19085.      0.80331    
    19144.      0.80429    
    19203.      0.80525    
    19262.      0.80620    
    19321.      0.80714    
    19380.      0.80807    
    19439.      0.80898    
    19498.      0.80988    
    19557.      0.81077    
    19616.      0.81165    
    19675.      0.81252    
    19734.      0.81338    
    19793.      0.81418    
    19852.      0.81491    
    19911.      0.81564    
    19970.      0.81635    
    20029.      0.81707    
    20088.      0.81779    
    20147.      0.81863    
    20206.      0.81946    
    20265.      0.82028    
    20324.      0.82109    
    20383.      0.82189    
    20442.      0.82268    
    20501.      0.82346    
    20560.      0.82423    
    20619.      0.82499    
    20678.      0.82574    
    20737.      0.82648    
    20796.      0.82722    
    20855.      0.82794    
    20914.      0.82866    
    20973.      0.82937    
    21032.      0.83007    
    21091.      0.83076    
    21150.      0.83144    
    21209.      0.83211    
    21268.      0.83278    
    21327.      0.83344    
    21386.      0.83409    
    21445.      0.83473    
    21504.      0.83537    
    21563.      0.83600    
    21622.      0.83662    
    21681.      0.83723    
    21740.      0.83784    
    21799.      0.83844    
    21858.      0.83903    
    21917.      0.83961    
    21976.      0.84019    
    22035.      0.84076    
    22094.      0.84133    
    22153.      0.84189    
    22212.      0.84244    
    22271.      0.84299    
    22330.      0.84353    
    22389.      0.84406    
    22448.      0.84459    
    22507.      0.84511    
    22566.      0.84563    
    22625.      0.84614    
    22684.      0.84664    
    22743.      0.84714    
    22802.      0.84763    
    22861.      0.84812    
    22920.      0.84860    
    22979.      0.84908    
    23038.      0.84955    
    23097.      0.85001    
    23156.      0.85047    
    23215.      0.85093    
    23274.      0.85138    
    23333.      0.85183    
    23392.      0.85227    
    23451.      0.85270    
    23510.      0.85313    
    23569.      0.85356    
    23628.      0.85398    
    23687.      0.85440    
    23746.      0.85481    
    23805.      0.85522    
    23864.      0.85562    
    23923.      0.85602    
    23982.      0.85642    
    24041.      0.85681    
    24100.      0.85720    
    24159.      0.85758    
    24218.      0.85796    
    24277.      0.85833    
    24336.      0.85870    
    24395.      0.85907    
    24454.      0.85943    
    24513.      0.85979    
    24572.      0.86014    
    24631.      0.86049    
    24690.      0.86084    
    24749.      0.86118    
    24808.      0.86152    
    24867.      0.86186    
    24926.      0.86219    
    24985.      0.86252    
    25044.      0.86285    
    25103.      0.86317    
    25162.      0.86349    
    25221.      0.86381    
    25280.      0.86412    
    25339.      0.86443    
    25398.      0.86473    
    25457.      0.86504    
    25516.      0.86534    
    25575.      0.86563    
    25634.      0.86593    
    25693.      0.86622    
    25752.      0.86651    
    25811.      0.86679    
    25870.      0.86707    
    25929.      0.86735    
    25988.      0.86763    
    26047.      0.86790    
    26106.      0.86817    
    26165.      0.86844    
    26224.      0.86871    
    26283.      0.86897    
    26342.      0.86923    
    26401.      0.86949    
    26460.      0.86974    
    26519.      0.86999    
    26578.      0.87024    
    26637.      0.87049    
    26696.      0.87073    
    26755.      0.87098    
    26814.      0.87122    
    26873.      0.87146    
    26932.      0.87169    
    26991.      0.87192    
    27050.      0.87215    
    27109.      0.87238    
    27168.      0.87261    
    27227.      0.87283    
    27286.      0.87305    
    27345.      0.87327    
    27404.      0.87349    
    27463.      0.87371    
    27522.      0.87392    
    27581.      0.87413    
    27640.      0.87434    
    27699.      0.87455    
    27758.      0.87475    
    27817.      0.87496    
    27876.      0.87516    
    27935.      0.87536    
    27994.      0.87555    
    28053.      0.87575    
    28112.      0.87594    
    28171.      0.87614    
    28230.      0.87633    
    28289.      0.87651    
    28348.      0.87670    
    28407.      0.87688    
    28466.      0.87707    
    28525.      0.87725    
    28584.      0.87743    
    28643.      0.87761    
    28702.      0.87778    
    28761.      0.87796    
    28820.      0.87813    
    28879.      0.87830    
    28938.      0.87847    
    28997.      0.87864    
    29056.      0.87881    
    29115.      0.87897    
    29174.      0.87913    
    29233.      0.87930    
    29292.      0.87946    
    29351.      0.87961    
    29410.      0.87977    
    29469.      0.87993    
    29528.      0.88008    
    29587.      0.88024    
    29646.      0.88039    
    29705.      0.88054    
    29764.      0.88069    
    29823.      0.88083    
    29882.      0.88098    
    29941.      0.88113    
    30000.      0.88127    